Frequenz/GHz	Spannung/V
3.000000	0.233606
3.030000	0.230691
3.060000	0.234906
3.090000	0.233271
3.120000	0.227081
3.150000	0.225771
3.180000	0.221801
3.210000	0.213981
3.240000	0.209086
3.270000	0.203386
3.300000	0.194721
3.330000	0.187663
3.360000	0.181342
3.390000	0.173537
3.420000	0.164855
3.450000	0.157159
3.480000	0.149526
3.510000	0.141034
3.540000	0.133140
3.570000	0.125812
3.600000	0.117513
3.630000	0.109581
3.660000	0.102653
3.690000	0.094471
3.720000	0.086447
3.750000	0.079944
3.780000	0.072372
3.810000	0.064626
3.840000	0.058461
3.870000	0.051885
3.900000	0.045109
3.930000	0.039307
3.960000	0.033538
3.990000	0.027886
4.020000	0.023137
4.050000	0.018653
4.080000	0.014514
4.110000	0.011086
4.140000	0.008253
4.170000	0.005987
4.200000	0.004390
4.230000	0.003386
4.260000	0.002946
4.290000	0.003039
4.320000	0.003606
4.350000	0.004564
4.380000	0.005840
4.410000	0.007376
4.440000	0.009106
4.470000	0.010967
4.500000	0.012912
4.530000	0.014910
4.560000	0.016951
4.590000	0.018941
4.620000	0.020833
4.650000	0.022770
4.680000	0.024610
4.710000	0.026204
4.740000	0.027837
4.770000	0.029267
4.800000	0.030395
4.830000	0.031597
4.860000	0.032692
4.890000	0.033417
4.920000	0.034150
4.950000	0.034829
4.980000	0.035093
5.010000	0.035341
5.040000	0.035673
5.070000	0.035672
5.100000	0.035495
5.130000	0.035414
5.160000	0.035123
5.190000	0.034678
5.220000	0.034156
5.250000	0.033412
5.280000	0.032565
5.310000	0.031723
5.340000	0.030915
5.370000	0.029880
5.400000	0.028768
5.430000	0.027760
5.460000	0.026531
5.490000	0.025246
5.520000	0.024030
5.550000	0.022693
5.580000	0.021305
5.610000	0.020026
5.640000	0.018675
5.670000	0.017257
5.700000	0.016023
5.730000	0.014849
5.760000	0.013626
5.790000	0.012556
5.820000	0.011567
5.850000	0.010640
5.880000	0.009887
5.910000	0.009295
5.940000	0.008788
5.970000	0.008438
6.000000	0.008287
6.030000	0.008241
6.060000	0.008363
6.090000	0.008674
6.120000	0.009151
6.150000	0.009738
6.180000	0.010473
6.210000	0.011371
6.240000	0.012343
6.270000	0.013441
6.300000	0.014711
6.330000	0.015964
6.360000	0.017277
6.390000	0.018711
6.420000	0.020130
6.450000	0.021507
6.480000	0.022994
6.510000	0.024559
6.540000	0.025929
6.570000	0.027285
6.600000	0.028706
6.630000	0.029954
6.660000	0.031183
6.690000	0.032415
6.720000	0.033583
6.750000	0.034623
6.780000	0.035668
6.810000	0.036641
6.840000	0.037370
6.870000	0.038085
6.900000	0.038743
6.930000	0.039054
6.960000	0.039193
6.990000	0.039502
7.020000	0.039565
7.050000	0.039327
7.080000	0.039336
7.110000	0.039011
7.140000	0.038241
7.170000	0.037922
7.200000	0.037390
7.230000	0.036213
7.260000	0.035522
7.290000	0.034552
7.320000	0.033049
7.350000	0.031846
7.380000	0.030635
7.410000	0.028924
7.440000	0.027336
7.470000	0.025697
7.500000	0.023821
7.530000	0.022051
7.560000	0.020238
7.590000	0.018372
7.620000	0.016636
7.650000	0.014956
7.680000	0.013377
7.710000	0.011970
7.740000	0.010757
7.770000	0.009821
7.800000	0.009165
7.830000	0.008879
7.860000	0.008975
7.890000	0.009477
7.920000	0.010417
7.950000	0.011811
7.980000	0.013594
8.010000	0.015789
8.040000	0.018337
8.070000	0.020995
8.100000	0.024185
8.130000	0.027483
8.160000	0.030264
8.190000	0.033658
8.220000	0.036746
8.250000	0.038530
8.280000	0.040660
8.310000	0.041751
8.340000	0.040094
8.370000	0.036774
8.400000	0.029900
8.430000	0.016752
8.460000	0.004300
8.490000	0.034953
8.520000	0.116017
8.550000	0.177886
8.580000	0.200638
8.610000	0.194971
8.640000	0.196909
8.670000	0.199822
8.700000	0.197172
8.730000	0.195868
8.760000	0.200308
8.790000	0.203177
8.820000	0.199624
8.850000	0.206452
8.880000	0.213961
8.910000	0.204101
8.940000	0.209936
8.970000	0.221531
9.000000	0.207241
